File: data/KatalysatorArgon.txt
time/s	Ewe/V	<I>/mA	cycle number
98.2492	0.0808972	0.00107902	1
101.949	0.0625006	-0.000587015	1
105.949	0.042444	-0.0011201	1
109.982	0.022298	-0.00134307	1
114.048	0.0019229	-0.00146463	1
118.215	-0.0188532	-0.00169172	1
122.414	-0.0398999	-0.00178511	1
126.681	-0.0612213	-0.00186558	1
130.814	-0.0818975	-0.0018782	1
135.28	-0.104174	-0.00195351	1
139.347	-0.124557	-0.0019257	1
143.513	-0.145391	-0.00197102	1
148.246	-0.169001	-0.00203568	1
152.279	-0.18919	-0.00212598	1
156.279	-0.209235	-0.002209	1
160.412	-0.229881	-0.00228899	1
164.479	-0.250149	-0.00240716	1
168.478	-0.270207	-0.0025198	1
172.478	-0.290151	-0.00260961	1
176.745	-0.311536	-0.00269838	1
181.144	-0.333489	-0.00279083	1
185.144	-0.353508	-0.00287321	1
189.144	-0.373511	-0.0029498	1
193.377	-0.394697	-0.00298189	1
197.41	-0.414834	-0.00310969	1
201.41	-0.434844	-0.00321146	1
205.41	-0.45482	-0.00332378	1
209.409	-0.474901	-0.00341059	1
213.409	-0.494855	-0.00347737	1
217.509	-0.51539	-0.00346626	1
221.675	-0.536187	-0.00365935	1
225.742	-0.556548	-0.00368755	1
230.408	-0.579858	-0.00392108	1
234.408	-0.599837	-0.00406275	1
238.408	-0.619849	-0.00421678	1
242.407	-0.639785	-0.00437681	1
246.407	-0.659832	-0.00456131	1
250.407	-0.679865	-0.0047626	1
254.407	-0.699868	-0.00496099	1
258.406	-0.719869	-0.00515854	1
262.406	-0.739902	-0.00538719	1
266.406	-0.759874	-0.00566771	1
270.406	-0.779872	-0.00602273	1
274.405	-0.799841	-0.00647793	1
278.405	-0.819848	-0.00702395	1
282.405	-0.839861	-0.00766518	1
286.405	-0.85984	-0.00843892	1
290.404	-0.87984	-0.00934134	1
294.404	-0.899849	-0.0103226	1
298.171	-0.918679	-0.011261	1
300.68	-0.907177	-0.00688437	1
304.679	-0.887123	-0.00462184	1
308.679	-0.867155	-0.00327219	1
312.679	-0.847146	-0.00232507	1
316.679	-0.827174	-0.0016237	1
320.678	-0.807193	-0.00076363	1
324.678	-0.787228	-0.000369897	1
328.678	-0.767174	-0.000107071	1
332.678	-0.747243	7.02551e-05	1
336.678	-0.727235	4.87201e-05	1
340.677	-0.707212	0.000236708	1
344.677	-0.687205	0.000264482	1
348.81	-0.666539	0.000297453	1
352.81	-0.646489	0.000366434	1
356.81	-0.626506	0.000359292	1
360.809	-0.606511	0.000393163	1
364.809	-0.586489	0.00043374	1
368.809	-0.566511	0.000474641	1
372.809	-0.546518	0.000518101	1
376.808	-0.526517	0.00055541	1
380.808	-0.506537	0.000592609	1
384.808	-0.486517	0.000617339	1
388.808	-0.466532	0.000618611	1
392.874	-0.446159	0.000514635	1
396.941	-0.425851	0.0006145	1
400.94	-0.405869	0.000604562	1
404.94	-0.385853	0.000592937	1
408.94	-0.365818	0.000585533	1
412.94	-0.345844	0.000578947	1
416.939	-0.325832	0.000594047	1
420.939	-0.305869	0.00061342	1
424.939	-0.285849	0.000638692	1
428.939	-0.26583	0.000671518	1
432.938	-0.245869	0.000712724	1
436.938	-0.225853	0.000759148	1
440.938	-0.20583	0.000806895	1
444.938	-0.185826	0.000857837	1
448.937	-0.165887	0.000919243	1
452.937	-0.145881	0.000998814	1
457.27	-0.124193	0.00110146	1
461.27	-0.104195	0.00122181	1
465.27	-0.0842169	0.0013814	1
469.27	-0.0641891	0.00155508	1
473.269	-0.0442323	0.00183841	1
477.536	-0.0228697	0.00219601	1
481.535	-0.00287969	0.00260479	1
485.535	0.0171961	0.00313143	1
489.535	0.0371211	0.00379839	1
493.535	0.0571371	0.00475473	1
497.535	0.0771729	0.0063425	1
500.071	0.0717913	0.00401872	2
504.137	0.0514905	0.00191	2
508.337	0.0304513	0.000854448	2
512.403	0.0101121	0.000278655	2
516.603	-0.0108862	-0.00016258	2
520.603	-0.030865	-0.00042709	2
524.603	-0.0508865	-0.000618372	2
528.602	-0.0708512	-0.000747836	2
532.602	-0.0908734	-0.000868804	2
536.668	-0.111226	-0.000947958	2
540.668	-0.131257	-0.00101934	2
544.668	-0.151257	-0.00107843	2
548.668	-0.171184	-0.00113702	2
552.801	-0.191854	-0.00119221	2
556.801	-0.211881	-0.00124958	2
560.8	-0.23183	-0.00130331	2
565.067	-0.253165	-0.00125945	2
569.4	-0.274842	-0.0014118	2
573.4	-0.294822	-0.00135154	2
577.399	-0.31485	-0.0014761	2
581.666	-0.336172	-0.00151376	2
585.666	-0.356237	-0.00154286	2
589.665	-0.376187	-0.00157303	2
593.665	-0.396235	-0.00159377	2
597.931	-0.417545	-0.00164231	2
601.931	-0.437546	-0.00156345	2
605.931	-0.457524	-0.00170746	2
609.931	-0.477559	-0.00173689	2
613.997	-0.497851	-0.00167811	2
618.064	-0.518197	-0.00180252	2
622.063	-0.538152	-0.00184266	2
626.063	-0.558188	-0.00190527	2
630.196	-0.57885	-0.00192558	2
634.263	-0.599183	-0.00188412	2
638.329	-0.619501	-0.00208217	2
642.329	-0.63953	-0.00216722	2
646.329	-0.659571	-0.00226617	2
650.328	-0.679528	-0.00238163	2
654.328	-0.699478	-0.00254637	2
658.328	-0.719507	-0.00254694	2
662.328	-0.739537	-0.00287552	2
666.394	-0.759895	-0.00314505	2
670.394	-0.779848	-0.00347365	2
674.394	-0.799816	-0.00388197	2
678.393	-0.819866	-0.00440172	2
682.393	-0.839866	-0.00501415	2
686.393	-0.859856	-0.00573724	2
690.393	-0.879799	-0.00660919	2
694.392	-0.899876	-0.00761546	2
698.159	-0.918665	-0.00866459	2
700.668	-0.907194	-0.00476864	2
704.668	-0.887126	-0.00302574	2
708.667	-0.867196	-0.00198475	2
712.667	-0.847161	-0.00124691	2
716.8	-0.826543	-0.000689542	2
720.8	-0.806468	-0.000278666	2
724.866	-0.786182	4.17695e-06	2
729	-0.765496	0.000213156	2
733.133	-0.744882	0.00033518	2
737.132	-0.724812	0.000423459	2
741.199	-0.704539	0.000260465	2
745.199	-0.684482	0.000459879	2
749.198	-0.664552	0.000495026	2
753.198	-0.644514	0.000521869	2
757.198	-0.624546	0.000553874	2
761.198	-0.604515	0.000585597	2
765.197	-0.584477	0.000613922	2
769.197	-0.564487	0.000635271	2
773.197	-0.544502	0.000657081	2
777.197	-0.524474	0.000670622	2
781.196	-0.504499	0.000670371	2
785.329	-0.48386	0.000684182	2
789.329	-0.46388	0.000673643	2
793.329	-0.443855	0.000677636	2
797.329	-0.423828	0.000566307	2
801.395	-0.4035	0.00048116	2
805.462	-0.3832	0.000602342	2
809.461	-0.363203	0.000595603	2
813.461	-0.34313	0.000590159	2
817.461	-0.323212	0.000604253	2
821.594	-0.302488	0.00061779	2
825.627	-0.282342	0.00056433	2
829.793	-0.261505	0.00066847	2
833.793	-0.24159	0.000706679	2
837.926	-0.220868	0.000742789	2
841.926	-0.200887	0.000782356	2
846.192	-0.179516	0.000826993	2
850.192	-0.159539	0.000870105	2
854.192	-0.139537	0.000939411	2
858.192	-0.119594	0.00102041	2
862.192	-0.0994935	0.00111318	2
866.191	-0.0794859	0.00123596	2
870.458	-0.0582542	0.00135203	2
874.457	-0.0382318	0.00161349	2
878.591	-0.017566	0.00189138	2
882.724	0.00313811	0.00216435	2
886.857	0.0238317	0.00271824	2
890.856	0.0438081	0.00331294	2
894.856	0.0638502	0.00420819	2
898.226	0.0810766	0.00768416	2
901.325	0.0654949	0.00246271	3
905.325	0.0454599	0.00120171	3
909.458	0.024822	0.00047877	3
913.458	0.00479186	3.64051e-05	3
917.524	-0.0155318	-0.000170025	3
921.724	-0.036532	-0.000462893	3
925.724	-0.0565431	-0.000599857	3
929.724	-0.0765095	-0.000705309	3
933.724	-0.096533	-0.000781852	3
937.723	-0.116579	-0.000843184	3
941.723	-0.136547	-0.000899258	3
945.723	-0.156511	-0.000945386	3
949.723	-0.176524	-0.000994339	3
953.722	-0.196509	-0.00103368	3
957.722	-0.216533	-0.00108133	3
961.722	-0.236592	-0.00112411	3
965.722	-0.256503	-0.0011671	3
969.721	-0.276538	-0.00120237	3
973.721	-0.296554	-0.0012403	3
977.721	-0.31651	-0.00126678	3
981.721	-0.336528	-0.00129576	3
985.987	-0.357873	-0.00132469	3
989.987	-0.377866	-0.00123179	3
993.987	-0.397903	-0.00137829	3
997.986	-0.417857	-0.00141096	3
1001.99	-0.437844	-0.00144348	3
1005.99	-0.45788	-0.00146638	3
1009.99	-0.47788	-0.001494	3
1013.99	-0.497887	-0.00143376	3
1017.99	-0.517879	-0.00155343	3
1021.98	-0.5378	-0.00158753	3
1025.98	-0.557848	-0.0016363	3
1029.98	-0.577827	-0.00168164	3
1033.98	-0.597848	-0.00174458	3
1037.98	-0.61782	-0.00181022	3
1041.98	-0.637861	-0.0018928	3
1045.98	-0.657861	-0.0019822	3
1049.98	-0.677876	-0.00209541	3
1053.98	-0.697786	-0.00221063	3
1057.98	-0.717805	-0.00235944	3
1061.98	-0.737889	-0.00255156	3
1065.98	-0.757849	-0.00278239	3
1069.98	-0.777859	-0.00308161	3
1073.98	-0.797833	-0.00345125	3
1078.11	-0.8185	-0.0039189	3
1082.11	-0.838507	-0.0044598	3
1086.11	-0.858492	-0.00511114	3
1090.11	-0.878467	-0.00587467	3
1094.11	-0.898524	-0.00678196	3
1098.01	-0.918018	-0.00781268	3
1100.66	-0.907182	-0.00408651	3
1104.66	-0.887127	-0.00250808	3
1108.66	-0.867176	-0.00157738	3
1112.66	-0.847165	-0.000922854	3
1116.66	-0.82723	-0.000435772	3
1120.79	-0.806545	-5.47486e-05	3
1124.79	-0.786535	0.000198461	3
1128.79	-0.766543	0.0003633	3
1132.79	-0.746551	0.000457753	3
1136.79	-0.72645	0.000506638	3
1140.79	-0.706559	0.000530535	3
1144.79	-0.686482	0.000540824	3
1148.79	-0.666494	0.000544315	3
1152.79	-0.646489	0.000560433	3
1156.79	-0.626508	0.000579484	3
1160.79	-0.606485	0.000589535	3
1164.79	-0.586468	0.000581345	3
1168.79	-0.566491	0.000616173	3
1172.92	-0.54587	0.000624185	3
1176.92	-0.525791	0.000634215	3
1180.92	-0.505808	0.00062391	3
1184.92	-0.485828	0.000637178	3
1188.92	-0.465837	0.000628332	3
1192.92	-0.445846	0.000614625	3
1196.92	-0.425901	0.00059882	3
1200.92	-0.405891	0.00058469	3
1204.92	-0.385894	0.000574327	3
1208.92	-0.365846	0.000530739	3
1212.92	-0.345861	0.000549642	3
1216.92	-0.325905	0.000576437	3
1220.92	-0.305856	0.000596142	3
1224.92	-0.285812	0.00058011	3
1229.05	-0.265204	0.000640597	3
1233.05	-0.24521	0.00067377	3
1237.05	-0.225187	0.000709056	3
1241.18	-0.204534	0.000747472	3
1245.18	-0.184509	0.000734487	3
1249.18	-0.164545	0.000830684	3
1253.18	-0.144574	0.000883379	3
1257.31	-0.123908	0.00094983	3
1261.31	-0.103882	0.00102671	3
1265.31	-0.083877	0.00110708	3
1269.48	-0.0631292	0.0011527	3
1273.71	-0.0418946	0.00143508	3
1277.71	-0.0218657	0.00165358	3
1281.71	-0.00188842	0.00193305	3
1285.91	0.0191292	0.00232313	3
1289.91	0.039107	0.00280483	3
1293.91	0.0591547	0.00349625	3
1297.91	0.0791181	0.00463041	3
1298.21	0.0810346	0.00971504	3