File: data/Katalysator.txt
time/s	Ewe/V	<I>/mA	cycle number
1530.07	0.0763925	0.000613899	1
1535.27	0.0506415	-0.00040559	1
1539.27	0.030453	-0.000602895	1
1543.27	0.0104554	-0.000720114	1
1547.27	-0.00951161	-0.000800521	1
1551.27	-0.0298146	-0.000866482	1
1555.27	-0.049648	-0.000939181	1
1559.67	-0.0714438	-0.00107651	1
1563.67	-0.0916514	-0.00131718	1
1567.67	-0.111569	-0.00184698	1
1571.66	-0.131624	-0.00299973	1
1575.66	-0.151614	-0.00540016	1
1579.66	-0.171516	-0.00990341	1
1584.06	-0.193693	-0.0184059	1
1588.06	-0.213519	-0.0308885	1
1592.06	-0.233482	-0.0503753	1
1596.06	-0.253335	-0.079766	1
1600.46	-0.275512	-0.126088	1
1604.46	-0.295437	-0.17999	1
1608.46	-0.315527	-0.241898	1
1612.46	-0.33536	-0.306098	1
1616.46	-0.355552	-0.366522	1
1620.46	-0.375504	-0.41834	1
1624.46	-0.395353	-0.459145	1
1628.46	-0.415675	-0.490582	1
1632.46	-0.435447	-0.515211	1
1636.46	-0.455529	-0.533912	1
1640.46	-0.475507	-0.545825	1
1644.46	-0.495463	-0.553402	1
1648.46	-0.515552	-0.557332	1
1652.46	-0.535313	-0.561866	1
1656.46	-0.555383	-0.568666	1
1660.46	-0.575445	-0.577948	1
1664.46	-0.595485	-0.589807	1
1668.46	-0.61549	-0.60433	1
1672.46	-0.635301	-0.621056	1
1676.46	-0.655191	-0.638384	1
1680.46	-0.67567	-0.656323	1
1684.46	-0.695397	-0.671488	1
1688.46	-0.715547	-0.689005	1
1692.46	-0.73535	-0.70612	1
1696.46	-0.755641	-0.723046	1
1700.46	-0.775448	-0.738694	1
1704.46	-0.795339	-0.752675	1
1708.46	-0.815336	-0.769095	1
1712.46	-0.835578	-0.783387	1
1716.46	-0.855633	-0.795899	1
1720.46	-0.875306	-0.810328	1
1724.45	-0.895369	-0.822578	1
1728.45	-0.915473	-0.830259	1
1732.4	-0.91201	-0.826128	1
1736.4	-0.89194	-0.810509	1
1740.4	-0.87195	-0.793504	1
1744.4	-0.85188	-0.778255	1
1748.4	-0.832115	-0.761985	1
1752.4	-0.811992	-0.743093	1
1756.4	-0.792216	-0.722983	1
1760.4	-0.77221	-0.703155	1
1764.4	-0.752053	-0.682869	1
1768.4	-0.731898	-0.660985	1
1772.4	-0.712008	-0.640616	1
1776.4	-0.692121	-0.617411	1
1780.4	-0.672016	-0.596448	1
1784.4	-0.65216	-0.574736	1
1788.4	-0.632128	-0.55427	1
1792.4	-0.612218	-0.534467	1
1796.4	-0.59203	-0.518795	1
1800.4	-0.572059	-0.505482	1
1804.4	-0.552138	-0.496347	1
1808.4	-0.531858	-0.493116	1
1812.4	-0.512024	-0.489125	1
1816.4	-0.492076	-0.485096	1
1820.4	-0.472266	-0.477666	1
1824.4	-0.452135	-0.466375	1
1828.4	-0.432129	-0.448658	1
1832.4	-0.412155	-0.425737	1
1836.4	-0.392031	-0.396528	1
1840.4	-0.372114	-0.360819	1
1844.4	-0.352177	-0.319876	1
1848.4	-0.331989	-0.274012	1
1852.4	-0.312209	-0.225232	1
1856.4	-0.292074	-0.176428	1
1860.39	-0.271988	-0.130578	1
1864.39	-0.252071	-0.0912916	1
1868.39	-0.232169	-0.0606435	1
1872.79	-0.21019	-0.0366285	1
1876.79	-0.190124	-0.0220107	1
1880.79	-0.170057	-0.0123244	1
1884.79	-0.150113	-0.00630272	1
1889.19	-0.128127	-0.00267121	1
1893.19	-0.108159	-0.00100595	1
1897.59	-0.0862263	-8.14317e-05	1
1902.39	-0.0621093	0.000445195	1
1906.39	-0.0422033	0.000724542	1
1910.39	-0.0222134	0.000941378	1
1914.79	1.3771e-05	0.00116905	1
1918.79	0.0199579	0.00137171	1
1922.79	0.0398868	0.00160327	1
1926.79	0.0599607	0.00190365	1
1930.79	0.0722234	0.00115958	2
1935.59	0.0485646	-3.54299e-05	2
1939.99	0.0264596	-0.000435025	2
1943.99	0.00651165	-0.000640102	2
1947.99	-0.0136081	-0.00077777	2
1951.99	-0.0336057	-0.00089209	2
1955.99	-0.0535345	-0.00101224	2
1960.39	-0.0754906	-0.0012252	2
1964.39	-0.0955722	-0.00161457	2
1968.39	-0.115661	-0.00243059	2
1972.39	-0.135533	-0.00416236	2
1976.38	-0.155393	-0.00763948	2
1980.78	-0.177357	-0.0147992	2
1984.78	-0.197553	-0.0255746	2
1988.78	-0.217421	-0.0420985	2
1992.78	-0.237399	-0.0665547	2
1996.78	-0.257611	-0.100381	2
2001.18	-0.279273	-0.147763	2
2005.18	-0.299748	-0.196947	2
2009.18	-0.319512	-0.248039	2
2013.18	-0.339437	-0.297998	2
2017.18	-0.359378	-0.343757	2
2021.18	-0.37965	-0.383919	2
2025.18	-0.399438	-0.418086	2
2029.18	-0.41955	-0.446366	2
2033.18	-0.439452	-0.468663	2
2037.18	-0.459568	-0.483298	2
2041.18	-0.479768	-0.492421	2
2045.18	-0.499586	-0.498561	2
2049.18	-0.5195	-0.50135	2
2053.18	-0.539413	-0.505053	2
2057.18	-0.559613	-0.509404	2
2061.18	-0.579523	-0.517637	2
2065.18	-0.599551	-0.53127	2
2069.18	-0.619579	-0.547479	2
2073.18	-0.639401	-0.565879	2
2077.18	-0.659715	-0.58665	2
2081.18	-0.679438	-0.606318	2
2085.18	-0.699566	-0.627949	2
2089.18	-0.719506	-0.647287	2
2093.18	-0.73961	-0.667733	2
2097.18	-0.759593	-0.68638	2
2101.18	-0.77951	-0.707487	2
2105.18	-0.799424	-0.7247	2
2109.18	-0.819456	-0.741894	2
2113.18	-0.839602	-0.758564	2
2117.18	-0.85947	-0.775874	2
2121.18	-0.879613	-0.789209	2
2125.18	-0.899488	-0.803376	2
2129.17	-0.919638	-0.813509	2
2133.12	-0.908067	-0.804881	2
2137.12	-0.888084	-0.789906	2
2141.12	-0.86788	-0.773699	2
2145.12	-0.848269	-0.757245	2
2149.12	-0.828004	-0.74074	2
2153.12	-0.808029	-0.721059	2
2157.12	-0.787974	-0.703279	2
2161.12	-0.768343	-0.682456	2
2165.12	-0.748246	-0.663339	2
2169.12	-0.727962	-0.641753	2
2173.12	-0.708205	-0.620701	2
2177.12	-0.688105	-0.599715	2
2181.12	-0.668073	-0.577307	2
2185.12	-0.648037	-0.553995	2
2189.12	-0.627955	-0.535336	2
2193.12	-0.608187	-0.515854	2
2197.12	-0.587968	-0.499908	2
2201.12	-0.568165	-0.489686	2
2205.12	-0.547931	-0.483683	2
2209.12	-0.528139	-0.480949	2
2213.12	-0.50821	-0.480094	2
2217.12	-0.488045	-0.477731	2
2221.12	-0.467963	-0.469803	2
2225.12	-0.448053	-0.457332	2
2229.12	-0.428056	-0.438862	2
2233.12	-0.408314	-0.4152	2
2237.12	-0.388232	-0.385437	2
2241.12	-0.368139	-0.348616	2
2245.12	-0.34813	-0.306979	2
2249.12	-0.328003	-0.260639	2
2253.12	-0.308013	-0.211987	2
2257.12	-0.288229	-0.16352	2
2261.12	-0.268159	-0.119138	2
2265.11	-0.248154	-0.0819916	2
2269.11	-0.228061	-0.0535978	2
2273.51	-0.206128	-0.0319244	2
2277.51	-0.186019	-0.0189154	2
2281.51	-0.166205	-0.0104377	2
2285.51	-0.146188	-0.00527386	2
2289.91	-0.124083	-0.00220974	2
2293.91	-0.103964	-0.00078997	2
2298.71	-0.0802552	8.76794e-05	2
2303.11	-0.0581121	0.000545535	2
2307.11	-0.0380992	0.000827021	2
2311.51	-0.0159904	0.00108931	2
2315.51	0.00383156	0.00130944	2
2319.51	0.0239093	0.00152626	2
2323.51	0.0439489	0.00177077	2
2327.51	0.0638052	0.00207121	2
2331.51	0.0685202	0.000904964	3
2336.31	0.0443803	-2.6358e-05	3
2340.71	0.0225425	-0.000411767	3
2344.71	0.00264041	-0.000630022	3
2348.71	-0.0174793	-0.000787018	3
2352.71	-0.037622	-0.000916691	3
2357.11	-0.0594674	-0.00107895	3
2361.11	-0.0793504	-0.00131523	3
2365.11	-0.0994969	-0.0017684	3
2369.11	-0.119388	-0.00269527	3
2373.11	-0.139534	-0.00460349	3
2377.11	-0.15957	-0.00834571	3
2381.51	-0.181602	-0.0158407	3
2385.5	-0.201604	-0.0269897	3
2389.5	-0.221552	-0.0440882	3
2393.5	-0.241328	-0.0692824	3
2397.9	-0.26341	-0.108451	3
2401.9	-0.283381	-0.151572	3
2405.9	-0.303623	-0.200418	3
2409.9	-0.323628	-0.250728	3
2413.9	-0.343637	-0.299356	3
2417.9	-0.363417	-0.343866	3
2421.9	-0.383376	-0.382054	3
2425.9	-0.403511	-0.414757	3
2429.9	-0.423345	-0.441131	3
2433.9	-0.443587	-0.461258	3
2437.9	-0.463432	-0.47544	3
2441.9	-0.483418	-0.483506	3
2445.9	-0.503549	-0.48687	3
2449.9	-0.523382	-0.487673	3
2453.9	-0.543613	-0.489511	3
2457.9	-0.563633	-0.493061	3
2461.9	-0.583623	-0.502374	3
2465.9	-0.60351	-0.516111	3
2469.9	-0.62345	-0.533101	3
2473.9	-0.643589	-0.552221	3
2477.9	-0.663468	-0.571931	3
2481.9	-0.683393	-0.592774	3
2485.9	-0.703582	-0.613544	3
2489.9	-0.723553	-0.635754	3
2493.9	-0.743348	-0.656821	3
2497.9	-0.763441	-0.673686	3
2501.9	-0.783691	-0.693045	3
2505.9	-0.803574	-0.713148	3
2509.9	-0.823418	-0.73122	3
2513.9	-0.843328	-0.747898	3
2517.9	-0.863563	-0.764583	3
2521.9	-0.883709	-0.778879	3
2525.9	-0.903352	-0.794373	3
2529.84	-0.923235	-0.803957	3
2533.84	-0.90402	-0.786979	3
2537.84	-0.883843	-0.77405	3
2541.84	-0.86399	-0.758262	3
2545.84	-0.843962	-0.74175	3
2549.84	-0.824193	-0.724328	3
2553.84	-0.804058	-0.707112	3
2557.84	-0.78403	-0.688935	3
2561.84	-0.764098	-0.66819	3
2565.84	-0.744276	-0.649204	3
2569.84	-0.723954	-0.628529	3
2573.84	-0.704067	-0.607879	3
2577.84	-0.684069	-0.58586	3
2581.84	-0.664217	-0.565264	3
2585.84	-0.64407	-0.545793	3
2589.84	-0.624305	-0.521586	3
2593.84	-0.60393	-0.503787	3
2597.84	-0.584089	-0.488295	3
2601.84	-0.56403	-0.479559	3
2605.84	-0.543933	-0.474139	3
2609.84	-0.523982	-0.473401	3
2613.84	-0.503915	-0.472283	3
2617.84	-0.484105	-0.469796	3
2621.84	-0.463932	-0.461392	3
2625.84	-0.444159	-0.448965	3
2629.84	-0.424043	-0.429728	3
2633.84	-0.404164	-0.404575	3
2637.84	-0.384186	-0.372833	3
2641.84	-0.364165	-0.335656	3
2645.84	-0.34408	-0.292577	3
2649.84	-0.324063	-0.245806	3
2653.84	-0.304226	-0.196965	3
2657.84	-0.284156	-0.149594	3
2661.84	-0.264143	-0.107154	3
2665.84	-0.244287	-0.0724844	3
2670.23	-0.221922	-0.0446142	3
2674.23	-0.202207	-0.0274875	3
2678.23	-0.182091	-0.0160777	3
2682.23	-0.162235	-0.00872879	3
2686.63	-0.140133	-0.00403373	3
2690.63	-0.120159	-0.00178361	3
2694.63	-0.100287	-0.000586111	3
2699.83	-0.0740284	0.000224142	3
2703.83	-0.0538667	0.000594011	3
2707.83	-0.0340562	0.000880053	3
2712.23	-0.0122184	0.00114977	3
2716.23	0.00797005	0.00137453	3
2720.23	0.0279829	0.00160363	3
2724.23	0.0480339	0.00185705	3
2728.23	0.067959	0.00215911	3
2729.83	0.075858	0.00232473	3